{ Units, Wavelength Units } SI Microns
{ Thickness } 7.85
{ Conductivity } 1.000
{ IR Transmittance } TIR=0
{ Emissivity, front back }
{ }
{ Manufacturer: AGC Obeikan Glass}
{ Type: Coated }
{ Coated Side: Front }
{ Material: N/A }
{ Acceptance: # }
{ Appearance: }
{ Product Name:8 mm Stopray Titanium-34T }
{ Coating Name:Stopray Titanium-34T }
{ NFRC ID: 20748}
{ Substrate Filename: Planibel grey 8.gvb }
0.290	0.0000	0.1716	0.0481
0.295	0.0000	0.1571	0.0479
0.300	0.0000	0.1469	0.0476
0.305	0.0000	0.1465	0.0474
0.310	0.0000	0.1597	0.0471
0.315	0.0000	0.1836	0.0469
0.320	0.0000	0.2149	0.0467
0.325	0.0000	0.2497	0.0465
0.330	0.0000	0.2738	0.0463
0.335	0.0001	0.2880	0.0461
0.340	0.0006	0.3011	0.0460
0.345	0.0034	0.3118	0.0459
0.350	0.0108	0.3190	0.0463
0.355	0.0251	0.3249	0.0486
0.360	0.0455	0.3274	0.0540
0.365	0.0695	0.3268	0.0619
0.370	0.0913	0.3220	0.0686
0.375	0.1032	0.3108	0.0691
0.380	0.1142	0.2970	0.0686
0.385	0.1425	0.2804	0.0744
0.390	0.1815	0.2610	0.0835
0.395	0.2183	0.2406	0.0901
0.400	0.2461	0.2187	0.0912
0.405	0.2639	0.1971	0.0880
0.410	0.2739	0.1766	0.0825
0.415	0.2808	0.1574	0.0770
0.420	0.2861	0.1397	0.0720
0.425	0.2909	0.1241	0.0678
0.430	0.2939	0.1105	0.0641
0.435	0.2942	0.0989	0.0608
0.440	0.2942	0.0891	0.0581
0.445	0.2964	0.0812	0.0562
0.450	0.2999	0.0749	0.0546
0.455	0.3032	0.0702	0.0535
0.460	0.3049	0.0668	0.0524
0.465	0.3039	0.0646	0.0515
0.470	0.3001	0.0634	0.0507
0.475	0.2954	0.0629	0.0500
0.480	0.2902	0.0630	0.0495
0.485	0.2846	0.0633	0.0490
0.490	0.2797	0.0640	0.0487
0.495	0.2768	0.0650	0.0485
0.500	0.2747	0.0661	0.0483
0.505	0.2720	0.0672	0.0482
0.510	0.2693	0.0682	0.0481
0.515	0.2678	0.0691	0.0480
0.520	0.2673	0.0697	0.0481
0.525	0.2682	0.0700	0.0481
0.530	0.2717	0.0698	0.0482
0.535	0.2802	0.0694	0.0485
0.540	0.2936	0.0686	0.0489
0.545	0.3099	0.0673	0.0495
0.550	0.3271	0.0655	0.0500
0.555	0.3406	0.0634	0.0504
0.560	0.3460	0.0605	0.0503
0.565	0.3421	0.0568	0.0497
0.570	0.3307	0.0527	0.0489
0.575	0.3131	0.0479	0.0478
0.580	0.2931	0.0428	0.0468
0.585	0.2744	0.0377	0.0460
0.590	0.2631	0.0326	0.0453
0.595	0.2607	0.0277	0.0449
0.600	0.2637	0.0233	0.0448
0.605	0.2684	0.0191	0.0446
0.610	0.2717	0.0153	0.0444
0.615	0.2734	0.0119	0.0443
0.620	0.2731	0.0093	0.0442
0.625	0.2690	0.0076	0.0442
0.630	0.2627	0.0067	0.0442
0.635	0.2561	0.0067	0.0443
0.640	0.2501	0.0080	0.0446
0.645	0.2449	0.0109	0.0450
0.650	0.2414	0.0154	0.0455
0.655	0.2397	0.0217	0.0463
0.660	0.2420	0.0294	0.0474
0.665	0.2477	0.0386	0.0492
0.670	0.2561	0.0495	0.0515
0.675	0.2649	0.0622	0.0546
0.680	0.2744	0.0767	0.0587
0.685	0.2857	0.0924	0.0639
0.690	0.2934	0.1095	0.0701
0.695	0.2928	0.1279	0.0768
0.700	0.2883	0.1477	0.0839
0.705	0.2824	0.1691	0.0902
0.710	0.2748	0.1911	0.0963
0.715	0.2618	0.2129	0.1022
0.720	0.2468	0.2355	0.1075
0.725	0.2349	0.2597	0.1124
0.730	0.2234	0.2843	0.1167
0.735	0.2093	0.3080	0.1204
0.740	0.1956	0.3310	0.1239
0.745	0.1841	0.3537	0.1266
0.750	0.1733	0.3763	0.1289
0.755	0.1614	0.3989	0.1312
0.760	0.1499	0.4210	0.1330
0.765	0.1406	0.4424	0.1344
0.770	0.1318	0.4631	0.1356
0.775	0.1213	0.4831	0.1360
0.780	0.1119	0.5023	0.1369
0.785	0.1045	0.5208	0.1370
0.790	0.0981	0.5388	0.1372
0.795	0.0910	0.5567	0.1377
0.800	0.0835	0.5740	0.1380
0.805	0.0768	0.5903	0.1378
0.810	0.0712	0.6057	0.1378
0.815	0.0663	0.6202	0.1371
0.820	0.0622	0.6340	0.1364
0.825	0.0585	0.6470	0.1354
0.830	0.0554	0.6594	0.1346
0.835	0.0527	0.6713	0.1337
0.840	0.0500	0.6827	0.1320
0.845	0.0476	0.6938	0.1310
0.850	0.0455	0.7046	0.1305
0.855	0.0430	0.7152	0.1285
0.860	0.0407	0.7256	0.1273
0.865	0.0385	0.7357	0.1266
0.870	0.0364	0.7456	0.1257
0.875	0.0344	0.7553	0.1251
0.880	0.0324	0.7646	0.1247
0.885	0.0306	0.7736	0.1240
0.890	0.0288	0.7822	0.1234
0.895	0.0271	0.7905	0.1228
0.900	0.0256	0.7983	0.1220
0.905	0.0243	0.8057	0.1214
0.910	0.0231	0.8127	0.1206
0.915	0.0220	0.8193	0.1200
0.920	0.0210	0.8255	0.1193
0.925	0.0201	0.8314	0.1187
0.930	0.0193	0.8368	0.1182
0.935	0.0186	0.8420	0.1176
0.940	0.0178	0.8468	0.1168
0.945	0.0172	0.8512	0.1162
0.950	0.0165	0.8554	0.1156
0.955	0.0159	0.8593	0.1151
0.960	0.0153	0.8630	0.1146
0.965	0.0147	0.8664	0.1142
0.970	0.0141	0.8696	0.1137
0.975	0.0136	0.8726	0.1131
0.980	0.0130	0.8755	0.1129
0.985	0.0125	0.8782	0.1125
0.990	0.0121	0.8809	0.1121
0.995	0.0116	0.8835	0.1119
1.000	0.0112	0.8861	0.1116
1.005	0.0108	0.8886	0.1113
1.010	0.0104	0.8911	0.1109
1.015	0.0101	0.8936	0.1108
1.020	0.0097	0.8961	0.1104
1.025	0.0094	0.8985	0.1103
1.030	0.0091	0.9008	0.1101
1.035	0.0089	0.9031	0.1098
1.040	0.0086	0.9052	0.1096
1.045	0.0083	0.9073	0.1094
1.050	0.0081	0.9093	0.1092
1.055	0.0079	0.9111	0.1090
1.060	0.0076	0.9129	0.1087
1.065	0.0074	0.9145	0.1086
1.070	0.0072	0.9161	0.1083
1.075	0.0070	0.9176	0.1082
1.080	0.0068	0.9190	0.1079
1.085	0.0066	0.9204	0.1077
1.090	0.0064	0.9218	0.1075
1.095	0.0062	0.9231	0.1074
1.100	0.0060	0.9244	0.1072
1.105	0.0059	0.9257	0.1070
1.110	0.0057	0.9270	0.1069
1.115	0.0056	0.9282	0.1068
1.120	0.0054	0.9295	0.1066
1.125	0.0053	0.9307	0.1065
1.130	0.0051	0.9319	0.1064
1.135	0.0050	0.9331	0.1064
1.140	0.0049	0.9343	0.1064
1.145	0.0048	0.9354	0.1062
1.150	0.0047	0.9365	0.1062
1.155	0.0045	0.9375	0.1061
1.160	0.0044	0.9386	0.1061
1.165	0.0043	0.9396	0.1062
1.170	0.0042	0.9405	0.1062
1.175	0.0042	0.9414	0.1061
1.180	0.0041	0.9423	0.1062
1.185	0.0040	0.9432	0.1063
1.190	0.0039	0.9441	0.1064
1.195	0.0038	0.9450	0.1067
1.200	0.0038	0.9458	0.1068
1.205	0.0037	0.9466	0.1073
1.210	0.0036	0.9474	0.1076
1.215	0.0036	0.9482	0.1080
1.220	0.0035	0.9490	0.1084
1.225	0.0035	0.9498	0.1089
1.230	0.0034	0.9505	0.1095
1.235	0.0034	0.9512	0.1101
1.240	0.0033	0.9519	0.1106
1.245	0.0033	0.9525	0.1114
1.250	0.0032	0.9531	0.1121
1.255	0.0032	0.9536	0.1129
1.260	0.0032	0.9541	0.1139
1.265	0.0031	0.9546	0.1148
1.270	0.0031	0.9551	0.1158
1.275	0.0030	0.9555	0.1169
1.280	0.0030	0.9559	0.1180
1.285	0.0030	0.9564	0.1192
1.290	0.0030	0.9568	0.1204
1.295	0.0029	0.9573	0.1218
1.300	0.0029	0.9578	0.1231
1.305	0.0029	0.9583	0.1244
1.310	0.0029	0.9589	0.1257
1.315	0.0028	0.9595	0.1271
1.320	0.0028	0.9601	0.1286
1.325	0.0028	0.9607	0.1302
1.330	0.0028	0.9613	0.1317
1.335	0.0028	0.9619	0.1334
1.340	0.0027	0.9625	0.1349
1.345	0.0027	0.9630	0.1365
1.350	0.0027	0.9635	0.1384
1.355	0.0027	0.9639	0.1403
1.360	0.0027	0.9643	0.1423
1.365	0.0027	0.9647	0.1442
1.370	0.0027	0.9650	0.1462
1.375	0.0026	0.9654	0.1480
1.380	0.0026	0.9656	0.1499
1.385	0.0026	0.9659	0.1516
1.390	0.0026	0.9662	0.1531
1.395	0.0026	0.9665	0.1545
1.400	0.0025	0.9668	0.1559
1.405	0.0025	0.9671	0.1576
1.410	0.0025	0.9674	0.1594
1.415	0.0025	0.9678	0.1612
1.420	0.0025	0.9681	0.1631
1.425	0.0025	0.9685	0.1652
1.430	0.0025	0.9688	0.1675
1.435	0.0024	0.9692	0.1697
1.440	0.0024	0.9695	0.1719
1.445	0.0024	0.9699	0.1742
1.450	0.0024	0.9702	0.1765
1.455	0.0024	0.9705	0.1790
1.460	0.0024	0.9708	0.1813
1.465	0.0024	0.9711	0.1839
1.470	0.0024	0.9714	0.1864
1.475	0.0024	0.9717	0.1890
1.480	0.0024	0.9720	0.1915
1.485	0.0023	0.9723	0.1941
1.490	0.0023	0.9726	0.1969
1.495	0.0023	0.9729	0.1995
1.500	0.0023	0.9732	0.2023
1.505	0.0023	0.9735	0.2050
1.510	0.0023	0.9739	0.2077
1.515	0.0023	0.9743	0.2106
1.520	0.0023	0.9746	0.2134
1.525	0.0022	0.9750	0.2163
1.530	0.0022	0.9753	0.2191
1.535	0.0022	0.9757	0.2221
1.540	0.0022	0.9760	0.2248
1.545	0.0022	0.9763	0.2278
1.550	0.0022	0.9766	0.2308
1.555	0.0022	0.9768	0.2335
1.560	0.0022	0.9771	0.2365
1.565	0.0022	0.9773	0.2394
1.570	0.0022	0.9774	0.2421
1.575	0.0021	0.9776	0.2449
1.580	0.0021	0.9777	0.2472
1.585	0.0021	0.9778	0.2497
1.590	0.0021	0.9780	0.2521
1.595	0.0021	0.9781	0.2544
1.600	0.0021	0.9782	0.2567
1.605	0.0021	0.9783	0.2588
1.610	0.0021	0.9785	0.2608
1.615	0.0021	0.9786	0.2627
1.620	0.0021	0.9787	0.2642
1.625	0.0020	0.9789	0.2657
1.630	0.0020	0.9791	0.2674
1.635	0.0020	0.9793	0.2689
1.640	0.0020	0.9795	0.2701
1.645	0.0020	0.9797	0.2711
1.650	0.0020	0.9799	0.2723
1.655	0.0019	0.9801	0.2736
1.660	0.0019	0.9804	0.2749
1.665	0.0019	0.9807	0.2761
1.670	0.0019	0.9809	0.2772
1.675	0.0019	0.9812	0.2777
1.680	0.0018	0.9815	0.2784
1.685	0.0018	0.9817	0.2790
1.690	0.0018	0.9819	0.2798
1.695	0.0018	0.9821	0.2803
1.700	0.0018	0.9822	0.2803
1.705	0.0018	0.9823	0.2806
1.710	0.0017	0.9823	0.2809
1.715	0.0017	0.9824	0.2809
1.720	0.0017	0.9824	0.2809
1.725	0.0017	0.9824	0.2809
1.730	0.0017	0.9824	0.2808
1.735	0.0017	0.9824	0.2808
1.740	0.0017	0.9825	0.2810
1.745	0.0017	0.9826	0.2810
1.750	0.0017	0.9827	0.2808
1.755	0.0017	0.9829	0.2808
1.760	0.0016	0.9831	0.2808
1.765	0.0016	0.9833	0.2810
1.770	0.0016	0.9836	0.2816
1.775	0.0016	0.9839	0.2818
1.780	0.0016	0.9842	0.2821
1.785	0.0016	0.9844	0.2825
1.790	0.0016	0.9847	0.2827
1.795	0.0015	0.9849	0.2831
1.800	0.0015	0.9851	0.2835
1.805	0.0015	0.9852	0.2839
1.810	0.0015	0.9853	0.2842
1.815	0.0015	0.9854	0.2845
1.820	0.0015	0.9854	0.2851
1.825	0.0014	0.9854	0.2856
1.830	0.0014	0.9854	0.2859
1.835	0.0014	0.9854	0.2863
1.840	0.0014	0.9853	0.2864
1.845	0.0014	0.9852	0.2865
1.850	0.0014	0.9851	0.2870
1.855	0.0014	0.9850	0.2874
1.860	0.0013	0.9849	0.2885
1.865	0.0013	0.9848	0.2897
1.870	0.0013	0.9847	0.2906
1.875	0.0013	0.9847	0.2912
1.880	0.0013	0.9846	0.2911
1.885	0.0013	0.9847	0.2912
1.890	0.0013	0.9847	0.2917
1.895	0.0013	0.9848	0.2923
1.900	0.0013	0.9850	0.2930
1.905	0.0013	0.9852	0.2940
1.910	0.0013	0.9855	0.2950
1.915	0.0013	0.9859	0.2957
1.920	0.0013	0.9862	0.2966
1.925	0.0013	0.9866	0.2977
1.930	0.0013	0.9869	0.2986
1.935	0.0013	0.9873	0.2988
1.940	0.0013	0.9876	0.2993
1.945	0.0013	0.9879	0.3004
1.950	0.0012	0.9881	0.3010
1.955	0.0012	0.9882	0.3017
1.960	0.0012	0.9883	0.3030
1.965	0.0012	0.9884	0.3039
1.970	0.0012	0.9884	0.3042
1.975	0.0012	0.9883	0.3048
1.980	0.0012	0.9883	0.3056
1.985	0.0012	0.9883	0.3064
1.990	0.0012	0.9883	0.3074
1.995	0.0012	0.9883	0.3084
2.000	0.0012	0.9884	0.3095
2.005	0.0011	0.9885	0.3108
2.010	0.0011	0.9887	0.3119
2.015	0.0011	0.9889	0.3128
2.020	0.0011	0.9891	0.3140
2.025	0.0011	0.9893	0.3158
2.030	0.0011	0.9894	0.3175
2.035	0.0011	0.9896	0.3188
2.040	0.0011	0.9896	0.3202
2.045	0.0011	0.9896	0.3216
2.050	0.0011	0.9895	0.3228
2.055	0.0011	0.9893	0.3235
2.060	0.0011	0.9890	0.3245
2.065	0.0011	0.9887	0.3258
2.070	0.0011	0.9883	0.3265
2.075	0.0011	0.9879	0.3276
2.080	0.0011	0.9875	0.3289
2.085	0.0011	0.9872	0.3296
2.090	0.0011	0.9869	0.3302
2.095	0.0011	0.9867	0.3312
2.100	0.0011	0.9866	0.3322
2.105	0.0011	0.9866	0.3334
2.110	0.0011	0.9868	0.3352
2.115	0.0011	0.9871	0.3370
2.120	0.0011	0.9874	0.3389
2.125	0.0011	0.9878	0.3403
2.130	0.0011	0.9882	0.3415
2.135	0.0011	0.9887	0.3429
2.140	0.0011	0.9892	0.3436
2.145	0.0011	0.9897	0.3441
2.150	0.0011	0.9901	0.3448
2.155	0.0010	0.9905	0.3443
2.160	0.0010	0.9908	0.3436
2.165	0.0010	0.9911	0.3418
2.170	0.0010	0.9914	0.3396
2.175	0.0010	0.9916	0.3369
2.180	0.0009	0.9917	0.3345
2.185	0.0009	0.9917	0.3309
2.190	0.0009	0.9917	0.3279
2.195	0.0009	0.9917	0.3251
2.200	0.0009	0.9915	0.3228
2.205	0.0009	0.9913	0.3213
2.210	0.0009	0.9910	0.3203
2.215	0.0009	0.9907	0.3203
2.220	0.0009	0.9904	0.3215
2.225	0.0009	0.9901	0.3230
2.230	0.0009	0.9898	0.3252
2.235	0.0009	0.9896	0.3283
2.240	0.0009	0.9895	0.3314
2.245	0.0009	0.9894	0.3345
2.250	0.0009	0.9895	0.3376
2.255	0.0009	0.9897	0.3406
2.260	0.0009	0.9900	0.3439
2.265	0.0009	0.9904	0.3468
2.270	0.0008	0.9909	0.3499
2.275	0.0008	0.9913	0.3519
2.280	0.0008	0.9917	0.3541
2.285	0.0008	0.9920	0.3574
2.290	0.0008	0.9922	0.3588
2.295	0.0008	0.9923	0.3606
2.300	0.0008	0.9922	0.3623
2.305	0.0008	0.9919	0.3633
2.310	0.0008	0.9914	0.3644
2.315	0.0008	0.9908	0.3657
2.320	0.0008	0.9901	0.3654
2.325	0.0008	0.9894	0.3672
2.330	0.0008	0.9887	0.3680
2.335	0.0008	0.9880	0.3681
2.340	0.0008	0.9874	0.3689
2.345	0.0008	0.9870	0.3691
2.350	0.0008	0.9868	0.3703
2.355	0.0008	0.9868	0.3715
2.360	0.0007	0.9870	0.3724
2.365	0.0007	0.9873	0.3740
2.370	0.0007	0.9878	0.3757
2.375	0.0007	0.9884	0.3758
2.380	0.0006	0.9890	0.3773
2.385	0.0006	0.9896	0.3778
2.390	0.0006	0.9901	0.3791
2.395	0.0006	0.9906	0.3770
2.400	0.0006	0.9910	0.3777
2.405	0.0006	0.9912	0.3766
2.410	0.0007	0.9914	0.3760
2.415	0.0007	0.9914	0.3735
2.420	0.0007	0.9913	0.3728
2.425	0.0007	0.9913	0.3702
2.430	0.0008	0.9911	0.3697
2.435	0.0008	0.9911	0.3676
2.440	0.0007	0.9910	0.3661
2.445	0.0007	0.9910	0.3643
2.450	0.0006	0.9911	0.3618
2.455	0.0005	0.9913	0.3593
2.460	0.0003	0.9916	0.3548
2.465	0.0002	0.9920	0.3517
2.470	0.0000	0.9925	0.3528
2.475	0.0000	0.9931	0.3538
2.480	0.0000	0.9937	0.3517
2.485	0.0000	0.9943	0.3473
2.490	0.0000	0.9950	0.3449
2.495	0.0000	0.9958	0.3429
2.500	0.0000	0.9965	0.3397
5.000	0.0000	0.9872	0.0318
5.008	0.0000	0.9871	0.0317
5.015	0.0000	0.9871	0.0317
5.023	0.0000	0.9870	0.0317
5.030	0.0000	0.9870	0.0316
5.038	0.0000	0.9870	0.0315
5.045	0.0000	0.9870	0.0315
5.053	0.0000	0.9870	0.0315
5.061	0.0000	0.9869	0.0314
5.068	0.0000	0.9869	0.0313
5.076	0.0000	0.9868	0.0313
5.084	0.0000	0.9868	0.0312
5.092	0.0000	0.9868	0.0312
5.099	0.0000	0.9867	0.0312
5.107	0.0000	0.9867	0.0311
5.115	0.0000	0.9866	0.0311
5.123	0.0000	0.9866	0.0310
5.131	0.0000	0.9866	0.0309
5.139	0.0000	0.9866	0.0309
5.147	0.0000	0.9866	0.0309
5.155	0.0000	0.9865	0.0308
5.163	0.0000	0.9865	0.0308
5.171	0.0000	0.9864	0.0307
5.179	0.0000	0.9864	0.0307
5.187	0.0000	0.9864	0.0306
5.195	0.0000	0.9864	0.0306
5.203	0.0000	0.9864	0.0305
5.211	0.0000	0.9864	0.0305
5.219	0.0000	0.9863	0.0304
5.227	0.0000	0.9863	0.0304
5.236	0.0000	0.9862	0.0303
5.244	0.0000	0.9862	0.0303
5.252	0.0000	0.9862	0.0302
5.260	0.0000	0.9861	0.0302
5.269	0.0000	0.9861	0.0301
5.277	0.0000	0.9861	0.0300
5.285	0.0000	0.9860	0.0300
5.294	0.0000	0.9860	0.0299
5.302	0.0000	0.9860	0.0299
5.311	0.0000	0.9860	0.0298
5.319	0.0000	0.9859	0.0298
5.328	0.0000	0.9859	0.0297
5.336	0.0000	0.9859	0.0297
5.345	0.0000	0.9859	0.0296
5.353	0.0000	0.9858	0.0296
5.362	0.0000	0.9858	0.0295
5.371	0.0000	0.9858	0.0295
5.379	0.0000	0.9858	0.0294
5.388	0.0000	0.9857	0.0294
5.397	0.0000	0.9857	0.0293
5.405	0.0000	0.9857	0.0293
5.414	0.0000	0.9857	0.0292
5.423	0.0000	0.9856	0.0292
5.432	0.0000	0.9856	0.0291
5.441	0.0000	0.9856	0.0290
5.450	0.0000	0.9855	0.0290
5.459	0.0000	0.9855	0.0289
5.467	0.0000	0.9855	0.0289
5.476	0.0000	0.9855	0.0288
5.485	0.0000	0.9854	0.0287
5.495	0.0000	0.9853	0.0287
5.504	0.0000	0.9853	0.0286
5.513	0.0000	0.9853	0.0286
5.522	0.0000	0.9853	0.0285
5.531	0.0000	0.9853	0.0285
5.540	0.0000	0.9853	0.0284
5.549	0.0000	0.9852	0.0283
5.559	0.0000	0.9852	0.0283
5.568	0.0000	0.9851	0.0282
5.577	0.0000	0.9851	0.0282
5.587	0.0000	0.9851	0.0281
5.596	0.0000	0.9850	0.0280
5.605	0.0000	0.9850	0.0280
5.615	0.0000	0.9850	0.0279
5.624	0.0000	0.9850	0.0278
5.634	0.0000	0.9850	0.0277
5.643	0.0000	0.9850	0.0277
5.653	0.0000	0.9850	0.0277
5.663	0.0000	0.9849	0.0276
5.672	0.0000	0.9848	0.0276
5.682	0.0000	0.9848	0.0275
5.692	0.0000	0.9848	0.0274
5.701	0.0000	0.9848	0.0273
5.711	0.0000	0.9847	0.0273
5.721	0.0000	0.9847	0.0272
5.731	0.0000	0.9847	0.0271
5.741	0.0000	0.9847	0.0270
5.750	0.0000	0.9846	0.0269
5.760	0.0000	0.9846	0.0269
5.770	0.0000	0.9845	0.0268
5.780	0.0000	0.9845	0.0267
5.790	0.0000	0.9845	0.0267
5.800	0.0000	0.9845	0.0266
5.811	0.0000	0.9845	0.0265
5.821	0.0000	0.9845	0.0264
5.831	0.0000	0.9844	0.0264
5.841	0.0000	0.9844	0.0263
5.851	0.0000	0.9844	0.0262
5.862	0.0000	0.9843	0.0261
5.872	0.0000	0.9842	0.0260
5.882	0.0000	0.9842	0.0259
5.893	0.0000	0.9842	0.0258
5.903	0.0000	0.9841	0.0257
5.914	0.0000	0.9841	0.0257
5.924	0.0000	0.9841	0.0256
5.935	0.0000	0.9841	0.0255
5.945	0.0000	0.9841	0.0255
5.956	0.0000	0.9841	0.0254
5.967	0.0000	0.9840	0.0253
5.977	0.0000	0.9839	0.0252
5.988	0.0000	0.9839	0.0251
5.999	0.0000	0.9839	0.0249
6.010	0.0000	0.9839	0.0249
6.020	0.0000	0.9838	0.0248
6.031	0.0000	0.9838	0.0247
6.042	0.0000	0.9838	0.0246
6.053	0.0000	0.9837	0.0245
6.064	0.0000	0.9837	0.0244
6.075	0.0000	0.9837	0.0243
6.086	0.0000	0.9837	0.0242
6.098	0.0000	0.9836	0.0241
6.109	0.0000	0.9836	0.0240
6.120	0.0000	0.9836	0.0239
6.131	0.0000	0.9835	0.0238
6.143	0.0000	0.9835	0.0237
6.154	0.0000	0.9835	0.0236
6.165	0.0000	0.9835	0.0235
6.177	0.0000	0.9835	0.0234
6.188	0.0000	0.9835	0.0233
6.200	0.0000	0.9835	0.0232
6.211	0.0000	0.9834	0.0231
6.223	0.0000	0.9834	0.0230
6.234	0.0000	0.9833	0.0229
6.246	0.0000	0.9833	0.0228
6.258	0.0000	0.9833	0.0227
6.270	0.0000	0.9833	0.0226
6.281	0.0000	0.9833	0.0225
6.293	0.0000	0.9832	0.0224
6.305	0.0000	0.9832	0.0223
6.317	0.0000	0.9831	0.0222
6.329	0.0000	0.9830	0.0220
6.341	0.0000	0.9830	0.0218
6.353	0.0000	0.9831	0.0216
6.365	0.0000	0.9830	0.0216
6.378	0.0000	0.9830	0.0215
6.390	0.0000	0.9829	0.0214
6.402	0.0000	0.9829	0.0212
6.414	0.0000	0.9829	0.0211
6.427	0.0000	0.9829	0.0210
6.439	0.0000	0.9828	0.0209
6.452	0.0000	0.9828	0.0208
6.464	0.0000	0.9828	0.0207
6.477	0.0000	0.9827	0.0205
6.489	0.0000	0.9827	0.0203
6.502	0.0000	0.9827	0.0201
6.515	0.0000	0.9826	0.0199
6.527	0.0000	0.9826	0.0198
6.540	0.0000	0.9826	0.0198
6.553	0.0000	0.9826	0.0197
6.566	0.0000	0.9826	0.0195
6.579	0.0000	0.9825	0.0194
6.592	0.0000	0.9825	0.0193
6.605	0.0000	0.9825	0.0192
6.618	0.0000	0.9824	0.0190
6.631	0.0000	0.9824	0.0188
6.645	0.0000	0.9824	0.0185
6.658	0.0000	0.9824	0.0183
6.671	0.0000	0.9824	0.0183
6.684	0.0000	0.9823	0.0181
6.698	0.0000	0.9823	0.0179
6.711	0.0000	0.9823	0.0177
6.725	0.0000	0.9823	0.0175
6.739	0.0000	0.9822	0.0174
6.752	0.0000	0.9822	0.0173
6.766	0.0000	0.9822	0.0171
6.780	0.0000	0.9822	0.0170
6.793	0.0000	0.9822	0.0167
6.807	0.0000	0.9822	0.0165
6.821	0.0000	0.9821	0.0163
6.835	0.0000	0.9820	0.0162
6.849	0.0000	0.9819	0.0160
6.863	0.0000	0.9819	0.0158
6.878	0.0000	0.9820	0.0156
6.892	0.0000	0.9820	0.0154
6.906	0.0000	0.9820	0.0152
6.920	0.0000	0.9819	0.0151
6.935	0.0000	0.9818	0.0149
6.949	0.0000	0.9818	0.0147
6.964	0.0000	0.9819	0.0145
6.978	0.0000	0.9819	0.0143
6.993	0.0000	0.9818	0.0141
7.008	0.0000	0.9817	0.0138
7.022	0.0000	0.9817	0.0137
7.037	0.0000	0.9816	0.0135
7.052	0.0000	0.9816	0.0132
7.067	0.0000	0.9816	0.0129
7.082	0.0000	0.9816	0.0127
7.097	0.0000	0.9816	0.0125
7.112	0.0000	0.9816	0.0123
7.128	0.0000	0.9815	0.0120
7.143	0.0000	0.9814	0.0119
7.158	0.0000	0.9813	0.0116
7.174	0.0000	0.9814	0.0114
7.189	0.0000	0.9814	0.0112
7.205	0.0000	0.9814	0.0109
7.220	0.0000	0.9814	0.0106
7.236	0.0000	0.9814	0.0103
7.252	0.0000	0.9814	0.0101
7.267	0.0000	0.9813	0.0099
7.283	0.0000	0.9813	0.0096
7.299	0.0000	0.9812	0.0093
7.315	0.0000	0.9812	0.0091
7.331	0.0000	0.9811	0.0089
7.348	0.0000	0.9811	0.0086
7.364	0.0000	0.9811	0.0083
7.380	0.0000	0.9811	0.0080
7.396	0.0000	0.9812	0.0078
7.413	0.0000	0.9811	0.0075
7.429	0.0000	0.9810	0.0072
7.446	0.0000	0.9809	0.0070
7.463	0.0000	0.9810	0.0067
7.479	0.0000	0.9810	0.0063
7.496	0.0000	0.9810	0.0060
7.513	0.0000	0.9810	0.0057
7.530	0.0000	0.9809	0.0055
7.547	0.0000	0.9809	0.0052
7.564	0.0000	0.9809	0.0050
7.582	0.0000	0.9809	0.0047
7.599	0.0000	0.9809	0.0044
7.616	0.0000	0.9808	0.0041
7.634	0.0000	0.9808	0.0038
7.651	0.0000	0.9807	0.0035
7.669	0.0000	0.9807	0.0032
7.686	0.0000	0.9807	0.0030
7.704	0.0000	0.9806	0.0028
7.722	0.0000	0.9806	0.0026
7.740	0.0000	0.9805	0.0024
7.758	0.0000	0.9805	0.0022
7.776	0.0000	0.9805	0.0020
7.794	0.0000	0.9805	0.0019
7.813	0.0000	0.9804	0.0017
7.831	0.0000	0.9804	0.0017
7.849	0.0000	0.9803	0.0017
7.868	0.0000	0.9803	0.0017
7.886	0.0000	0.9803	0.0018
7.905	0.0000	0.9803	0.0019
7.924	0.0000	0.9802	0.0022
7.943	0.0000	0.9802	0.0025
7.962	0.0000	0.9801	0.0030
7.981	0.0000	0.9801	0.0037
8.000	0.0000	0.9800	0.0046
8.019	0.0000	0.9800	0.0058
8.039	0.0000	0.9800	0.0073
8.058	0.0000	0.9800	0.0092
8.078	0.0000	0.9799	0.0114
8.097	0.0000	0.9799	0.0140
8.117	0.0000	0.9799	0.0171
8.137	0.0000	0.9799	0.0206
8.157	0.0000	0.9798	0.0246
8.177	0.0000	0.9797	0.0290
8.197	0.0000	0.9797	0.0338
8.217	0.0000	0.9798	0.0388
8.237	0.0000	0.9797	0.0440
8.258	0.0000	0.9796	0.0493
8.278	0.0000	0.9796	0.0548
8.299	0.0000	0.9795	0.0603
8.319	0.0000	0.9795	0.0658
8.340	0.0000	0.9795	0.0713
8.361	0.0000	0.9795	0.0768
8.382	0.0000	0.9794	0.0822
8.403	0.0000	0.9794	0.0876
8.425	0.0000	0.9794	0.0929
8.446	0.0000	0.9794	0.0981
8.467	0.0000	0.9793	0.1032
8.489	0.0000	0.9793	0.1083
8.511	0.0000	0.9793	0.1133
8.532	0.0000	0.9793	0.1182
8.554	0.0000	0.9791	0.1230
8.576	0.0000	0.9790	0.1277
8.598	0.0000	0.9789	0.1324
8.621	0.0000	0.9789	0.1370
8.643	0.0000	0.9789	0.1415
8.666	0.0000	0.9788	0.1459
8.688	0.0000	0.9787	0.1502
8.711	0.0000	0.9787	0.1544
8.734	0.0000	0.9788	0.1585
8.757	0.0000	0.9788	0.1626
8.780	0.0000	0.9787	0.1666
8.803	0.0000	0.9787	0.1706
8.826	0.0000	0.9786	0.1746
8.850	0.0000	0.9786	0.1787
8.873	0.0000	0.9785	0.1828
8.897	0.0000	0.9783	0.1870
8.921	0.0000	0.9783	0.1913
8.945	0.0000	0.9783	0.1958
8.969	0.0000	0.9784	0.2005
8.993	0.0000	0.9783	0.2055
9.017	0.0000	0.9783	0.2106
9.042	0.0000	0.9782	0.2159
9.066	0.0000	0.9782	0.2214
9.091	0.0000	0.9782	0.2272
9.116	0.0000	0.9782	0.2332
9.141	0.0000	0.9782	0.2392
9.166	0.0000	0.9781	0.2453
9.191	0.0000	0.9782	0.2513
9.217	0.0000	0.9782	0.2572
9.242	0.0000	0.9782	0.2629
9.268	0.0000	0.9782	0.2682
9.294	0.0000	0.9782	0.2731
9.320	0.0000	0.9783	0.2774
9.346	0.0000	0.9783	0.2812
9.372	0.0000	0.9783	0.2843
9.398	0.0000	0.9782	0.2866
9.425	0.0000	0.9781	0.2881
9.452	0.0000	0.9780	0.2891
9.479	0.0000	0.9779	0.2893
9.506	0.0000	0.9779	0.2889
9.533	0.0000	0.9778	0.2878
9.560	0.0000	0.9777	0.2861
9.588	0.0000	0.9777	0.2843
9.615	0.0000	0.9777	0.2820
9.643	0.0000	0.9777	0.2795
9.671	0.0000	0.9777	0.2767
9.699	0.0000	0.9776	0.2737
9.728	0.0000	0.9776	0.2707
9.756	0.0000	0.9775	0.2676
9.785	0.0000	0.9775	0.2644
9.814	0.0000	0.9774	0.2613
9.843	0.0000	0.9773	0.2581
9.872	0.0000	0.9774	0.2549
9.901	0.0000	0.9774	0.2518
9.930	0.0000	0.9773	0.2487
9.960	0.0000	0.9772	0.2457
9.990	0.0000	0.9772	0.2428
10.020	0.0000	0.9772	0.2399
10.050	0.0000	0.9772	0.2370
10.081	0.0000	0.9772	0.2342
10.111	0.0000	0.9772	0.2315
10.142	0.0000	0.9772	0.2288
10.173	0.0000	0.9771	0.2260
10.204	0.0000	0.9770	0.2233
10.235	0.0000	0.9769	0.2207
10.267	0.0000	0.9769	0.2180
10.299	0.0000	0.9770	0.2154
10.331	0.0000	0.9770	0.2128
10.363	0.0000	0.9770	0.2102
10.395	0.0000	0.9769	0.2077
10.428	0.0000	0.9767	0.2052
10.460	0.0000	0.9766	0.2027
10.493	0.0000	0.9766	0.2002
10.526	0.0000	0.9765	0.1975
10.560	0.0000	0.9765	0.1948
10.593	0.0000	0.9766	0.1920
10.627	0.0000	0.9766	0.1891
10.661	0.0000	0.9766	0.1862
10.695	0.0000	0.9766	0.1831
10.730	0.0000	0.9765	0.1798
10.764	0.0000	0.9764	0.1763
10.799	0.0000	0.9765	0.1728
10.834	0.0000	0.9765	0.1691
10.870	0.0000	0.9765	0.1652
10.905	0.0000	0.9765	0.1613
10.941	0.0000	0.9764	0.1574
10.977	0.0000	0.9764	0.1534
11.013	0.0000	0.9763	0.1493
11.050	0.0000	0.9762	0.1453
11.086	0.0000	0.9762	0.1412
11.123	0.0000	0.9760	0.1372
11.161	0.0000	0.9758	0.1333
11.198	0.0000	0.9758	0.1295
11.236	0.0000	0.9759	0.1258
11.274	0.0000	0.9759	0.1222
11.312	0.0000	0.9758	0.1188
11.351	0.0000	0.9758	0.1155
11.390	0.0000	0.9758	0.1123
11.429	0.0000	0.9758	0.1092
11.468	0.0000	0.9758	0.1061
11.507	0.0000	0.9758	0.1030
11.547	0.0000	0.9758	0.1001
11.587	0.0000	0.9757	0.0974
11.628	0.0000	0.9757	0.0947
11.669	0.0000	0.9756	0.0920
11.710	0.0000	0.9756	0.0892
11.751	0.0000	0.9757	0.0865
11.792	0.0000	0.9758	0.0838
11.834	0.0000	0.9757	0.0811
11.876	0.0000	0.9756	0.0786
11.919	0.0000	0.9755	0.0762
11.962	0.0000	0.9755	0.0739
12.005	0.0000	0.9754	0.0720
12.048	0.0000	0.9755	0.0704
12.092	0.0000	0.9755	0.0691
12.136	0.0000	0.9754	0.0681
12.180	0.0000	0.9752	0.0675
12.225	0.0000	0.9752	0.0671
12.270	0.0000	0.9750	0.0670
12.315	0.0000	0.9750	0.0672
12.361	0.0000	0.9750	0.0676
12.407	0.0000	0.9752	0.0682
12.453	0.0000	0.9753	0.0691
12.500	0.0000	0.9752	0.0702
12.547	0.0000	0.9750	0.0713
12.594	0.0000	0.9749	0.0726
12.642	0.0000	0.9749	0.0738
12.690	0.0000	0.9749	0.0750
12.739	0.0000	0.9748	0.0763
12.788	0.0000	0.9748	0.0774
12.837	0.0000	0.9748	0.0784
12.887	0.0000	0.9749	0.0792
12.937	0.0000	0.9750	0.0798
12.987	0.0000	0.9750	0.0803
13.038	0.0000	0.9748	0.0807
13.089	0.0000	0.9746	0.0809
13.141	0.0000	0.9744	0.0809
13.193	0.0000	0.9746	0.0807
13.245	0.0000	0.9746	0.0802
13.298	0.0000	0.9745	0.0795
13.351	0.0000	0.9743	0.0786
13.405	0.0000	0.9742	0.0777
13.459	0.0000	0.9742	0.0768
13.514	0.0000	0.9743	0.0759
13.569	0.0000	0.9744	0.0748
13.624	0.0000	0.9743	0.0738
13.680	0.0000	0.9743	0.0728
13.736	0.0000	0.9742	0.0718
13.793	0.0000	0.9741	0.0709
13.850	0.0000	0.9741	0.0701
13.908	0.0000	0.9742	0.0693
13.966	0.0000	0.9741	0.0684
14.025	0.0000	0.9741	0.0675
14.085	0.0000	0.9743	0.0666
14.144	0.0000	0.9745	0.0658
14.205	0.0000	0.9744	0.0650
14.265	0.0000	0.9742	0.0642
14.327	0.0000	0.9741	0.0633
14.388	0.0000	0.9742	0.0625
14.451	0.0000	0.9743	0.0617
14.514	0.0000	0.9743	0.0610
14.577	0.0000	0.9742	0.0603
14.641	0.0000	0.9742	0.0596
14.706	0.0000	0.9741	0.0589
14.771	0.0000	0.9741	0.0584
14.837	0.0000	0.9740	0.0579
14.903	0.0000	0.9739	0.0572
14.970	0.0000	0.9737	0.0562
15.038	0.0000	0.9736	0.0554
15.106	0.0000	0.9733	0.0547
15.175	0.0000	0.9732	0.0540
15.244	0.0000	0.9735	0.0531
15.314	0.0000	0.9737	0.0523
15.385	0.0000	0.9737	0.0516
15.456	0.0000	0.9737	0.0509
15.528	0.0000	0.9739	0.0502
15.601	0.0000	0.9739	0.0495
15.674	0.0000	0.9737	0.0488
15.748	0.0000	0.9734	0.0479
15.823	0.0000	0.9733	0.0470
15.898	0.0000	0.9732	0.0463
15.974	0.0000	0.9734	0.0457
16.051	0.0000	0.9736	0.0450
16.129	0.0000	0.9737	0.0442
16.207	0.0000	0.9737	0.0433
16.287	0.0000	0.9734	0.0425
16.367	0.0000	0.9733	0.0419
16.447	0.0000	0.9735	0.0412
16.529	0.0000	0.9743	0.0400
16.611	0.0000	0.9751	0.0385
16.694	0.0000	0.9748	0.0373
16.779	0.0000	0.9739	0.0364
16.863	0.0000	0.9735	0.0357
16.949	0.0000	0.9736	0.0348
17.036	0.0000	0.9734	0.0339
17.123	0.0000	0.9731	0.0330
17.212	0.0000	0.9728	0.0320
17.301	0.0000	0.9729	0.0309
17.391	0.0000	0.9732	0.0299
17.483	0.0000	0.9730	0.0291
17.575	0.0000	0.9724	0.0284
17.668	0.0000	0.9723	0.0278
17.762	0.0000	0.9726	0.0274
17.857	0.0000	0.9727	0.0272
17.953	0.0000	0.9728	0.0273
18.051	0.0000	0.9729	0.0279
18.149	0.0000	0.9729	0.0291
18.248	0.0000	0.9727	0.0308
18.349	0.0000	0.9727	0.0335
18.450	0.0000	0.9725	0.0373
18.553	0.0000	0.9722	0.0420
18.657	0.0000	0.9723	0.0477
18.762	0.0000	0.9728	0.0550
18.868	0.0000	0.9728	0.0641
18.975	0.0000	0.9725	0.0747
19.084	0.0000	0.9722	0.0862
19.194	0.0000	0.9718	0.0983
19.305	0.0000	0.9715	0.1109
19.417	0.0000	0.9721	0.1238
19.531	0.0000	0.9727	0.1361
19.646	0.0000	0.9725	0.1480
19.763	0.0000	0.9714	0.1597
19.881	0.0000	0.9706	0.1704
20.000	0.0000	0.9711	0.1807
20.121	0.0000	0.9720	0.1909
20.243	0.0000	0.9727	0.2002
20.367	0.0000	0.9733	0.2088
20.492	0.0000	0.9735	0.2160
20.619	0.0000	0.9732	0.2222
20.747	0.0000	0.9729	0.2279
20.877	0.0000	0.9727	0.2325
21.008	0.0000	0.9721	0.2364
21.142	0.0000	0.9713	0.2390
21.277	0.0000	0.9711	0.2400
21.413	0.0000	0.9713	0.2405
21.552	0.0000	0.9712	0.2401
21.692	0.0000	0.9708	0.2396
21.834	0.0000	0.9708	0.2385
21.978	0.0000	0.9711	0.2351
22.124	0.0000	0.9708	0.2321
23.000	0.0000	0.9708	0.2321
24.000	0.0000	0.9708	0.2321
25.000	0.0000	0.9708	0.2321